OOIBase32 Version 2.0.0.5 Data File
++++++++++++++++++++++++++++++++++++
Date: 09-05-2013, 10:06:46
User: Valued Ocean Optics Customer
Spectrometer Serial Number: 
Spectrometer Channel: Master
Integration Time (msec): 18
Spectra Averaged: 1
Boxcar Smoothing: 0
Correct for Electrical Dark: Enabled
Time Normalized: Disabled
Dual-beam Reference: Disabled
Reference Channel: Master
Temperature: Not acquired
Spectrometer Type: S2000
ADC Type: USB2000
Number of Pixels in File: 2048
Graph Title: 
>>>>>Begin Spectral Data<<<<<
340.19	0.000
340.56	0.000
340.94	0.380
341.31	-2.201
341.68	-4.620
342.05	-8.201
342.42	-3.620
342.80	-1.201
343.17	1.380
343.54	-2.201
343.91	-5.620
344.29	0.799
344.66	2.380
345.03	-9.201
345.40	0.380
345.78	-3.201
346.15	-1.620
346.52	2.799
346.89	0.380
347.26	0.799
347.64	-6.620
348.01	-1.201
348.38	1.380
348.75	7.799
349.12	6.380
349.49	5.799
349.87	3.380
350.24	5.799
350.61	1.380
350.98	0.799
351.35	4.380
351.72	-0.201
352.10	-3.620
352.47	-2.201
352.84	-0.620
353.21	-2.201
353.58	-5.620
353.95	-3.201
354.32	-6.620
354.70	-3.201
355.07	-2.620
355.44	-0.201
355.81	-0.620
356.18	5.799
356.55	5.380
356.92	2.799
357.29	-8.620
357.67	-0.201
358.04	-1.620
358.41	-0.201
358.78	-7.620
359.15	-9.201
359.52	-1.620
359.89	-3.201
360.26	-4.620
360.63	-0.201
361.00	3.380
361.37	-4.201
361.74	-2.620
362.11	5.799
362.49	-1.620
362.86	0.799
363.23	-3.620
363.60	-3.201
363.97	-0.620
364.34	1.799
364.71	-1.620
365.08	-1.201
365.45	2.380
365.82	-7.201
366.19	-4.620
366.56	0.799
366.93	0.380
367.30	-2.201
367.67	1.380
368.04	-5.201
368.41	1.380
368.78	2.799
369.15	4.380
369.52	-0.201
369.89	0.380
370.26	4.799
370.63	1.380
371.00	5.799
371.37	10.380
371.74	10.799
372.11	19.380
372.48	22.799
372.85	14.380
373.22	23.799
373.59	21.380
373.96	27.799
374.33	24.380
374.70	27.799
375.07	24.380
375.44	27.799
375.80	28.380
376.17	32.799
376.54	24.380
376.91	32.799
377.28	36.380
377.65	32.799
378.02	36.380
378.39	39.799
378.76	38.380
379.13	26.799
379.50	36.380
379.87	39.799
380.23	41.380
380.60	40.799
380.97	30.380
381.34	44.799
381.71	38.380
382.08	40.799
382.45	33.380
382.82	35.799
383.18	31.380
383.55	34.799
383.92	23.380
384.29	29.799
384.66	36.380
385.03	37.799
385.40	43.380
385.76	49.799
386.13	51.380
386.50	57.799
386.87	42.380
387.24	45.799
387.61	50.380
387.97	51.799
388.34	54.380
388.71	59.799
389.08	43.380
389.45	56.799
389.82	54.380
390.18	58.799
390.55	62.380
390.92	69.799
391.29	68.380
391.66	72.799
392.02	70.380
392.39	67.799
392.76	71.380
393.13	73.799
393.49	65.380
393.86	53.799
394.23	54.380
394.60	61.799
394.96	56.380
395.33	56.799
395.70	71.380
396.07	71.799
396.43	82.380
396.80	71.799
397.17	75.380
397.54	73.799
397.90	65.380
398.27	85.799
398.64	76.380
399.01	101.799
399.37	101.380
399.74	111.799
400.11	121.380
400.47	128.799
400.84	121.380
401.21	134.799
401.58	131.380
401.94	140.799
402.31	137.380
402.68	139.799
403.04	138.380
403.41	145.799
403.78	139.380
404.14	138.799
404.51	143.380
404.88	139.799
405.24	125.380
405.61	133.799
405.98	156.380
406.34	139.799
406.71	151.380
407.08	152.799
407.44	137.380
407.81	146.799
408.17	154.380
408.54	153.799
408.91	152.380
409.27	160.799
409.64	158.380
410.01	156.799
410.37	149.380
410.74	167.799
411.10	155.380
411.47	165.799
411.84	166.380
412.20	167.799
412.57	173.380
412.93	173.799
413.30	188.380
413.66	189.799
414.03	186.380
414.40	171.799
414.76	176.380
415.13	177.799
415.49	173.380
415.86	190.799
416.22	168.380
416.59	185.799
416.95	202.380
417.32	183.799
417.69	187.380
418.05	193.799
418.42	184.380
418.78	188.799
419.15	190.380
419.51	188.799
419.88	174.380
420.24	187.799
420.61	192.380
420.97	195.799
421.34	200.380
421.70	200.799
422.07	186.380
422.43	200.799
422.80	188.380
423.16	195.799
423.53	194.380
423.89	204.799
424.26	193.380
424.62	193.799
424.99	183.380
425.35	195.799
425.71	187.380
426.08	194.799
426.44	196.380
426.81	196.799
427.17	186.380
427.54	189.799
427.90	202.380
428.27	193.799
428.63	186.380
428.99	194.799
429.36	192.380
429.72	192.799
430.09	183.380
430.45	164.799
430.82	161.380
431.18	178.799
431.54	181.380
431.91	197.799
432.27	196.380
432.64	203.799
433.00	214.380
433.36	223.799
433.73	218.380
434.09	225.799
434.45	226.380
434.82	218.799
435.18	235.380
435.55	219.799
435.91	241.380
436.27	259.799
436.64	250.380
437.00	261.799
437.36	246.380
437.73	251.799
438.09	239.380
438.45	241.799
438.82	250.380
439.18	244.799
439.54	242.380
439.91	247.799
440.27	264.380
440.63	246.799
440.99	249.380
441.36	266.799
441.72	271.380
442.08	274.799
442.45	277.380
442.81	282.799
443.17	280.380
443.54	285.799
443.90	284.380
444.26	269.799
444.62	286.380
444.99	281.799
445.35	274.380
445.71	278.799
446.07	289.380
446.44	285.799
446.80	276.380
447.16	281.799
447.52	300.380
447.89	290.799
448.25	296.380
448.61	298.799
448.97	322.380
449.34	318.799
449.70	306.380
450.06	306.799
450.42	324.380
450.78	321.799
451.15	321.380
451.51	330.799
451.87	328.380
452.23	324.799
452.59	291.380
452.96	302.799
453.32	321.380
453.68	317.799
454.04	319.380
454.40	316.799
454.76	317.380
455.13	312.799
455.49	327.380
455.85	316.799
456.21	327.380
456.57	332.799
456.93	343.380
457.29	329.799
457.66	333.380
458.02	328.799
458.38	322.380
458.74	337.799
459.10	331.380
459.46	339.799
459.82	336.380
460.18	348.799
460.55	330.380
460.91	356.799
461.27	354.380
461.63	364.799
461.99	360.380
462.35	359.799
462.71	357.380
463.07	368.799
463.43	376.380
463.79	389.799
464.15	372.380
464.51	387.799
464.87	375.380
465.24	369.799
465.60	378.380
465.96	376.799
466.32	395.380
466.68	408.799
467.04	374.380
467.40	406.799
467.76	378.380
468.12	404.799
468.48	421.380
468.84	399.799
469.20	419.380
469.56	414.799
469.92	428.380
470.28	418.799
470.64	437.380
471.00	438.799
471.36	440.380
471.72	448.799
472.08	459.380
472.44	479.799
472.80	475.380
473.16	466.799
473.52	508.380
473.88	516.799
474.24	510.380
474.60	529.799
474.96	524.380
475.32	529.799
475.68	532.380
476.03	530.799
476.39	553.380
476.75	555.799
477.11	561.380
477.47	573.799
477.83	569.380
478.19	594.799
478.55	600.380
478.91	613.799
479.27	631.380
479.63	632.799
479.99	624.380
480.34	638.799
480.70	637.380
481.06	649.799
481.42	663.380
481.78	673.799
482.14	682.380
482.50	705.799
482.86	694.380
483.22	701.799
483.57	697.380
483.93	699.799
484.29	697.380
484.65	692.799
485.01	698.380
485.37	683.799
485.72	664.380
486.08	656.799
486.44	647.380
486.80	642.799
487.16	658.380
487.52	679.799
487.87	693.380
488.23	717.799
488.59	720.380
488.95	732.799
489.31	752.380
489.66	749.799
490.02	765.380
490.38	764.799
490.74	787.380
491.10	775.799
491.45	753.380
491.81	779.799
492.17	765.380
492.53	779.799
492.88	762.380
493.24	767.799
493.60	782.380
493.96	802.799
494.31	791.380
494.67	805.799
495.03	812.380
495.39	792.799
495.74	806.380
496.10	801.799
496.46	794.380
496.82	800.799
497.17	813.380
497.53	808.799
497.89	821.380
498.24	782.799
498.60	791.380
498.96	798.799
499.32	768.380
499.67	786.799
500.03	789.380
500.39	774.799
500.74	767.380
501.10	751.799
501.46	772.380
501.81	771.799
502.17	768.380
502.53	758.799
502.88	761.380
503.24	758.799
503.60	756.380
503.95	750.799
504.31	765.380
504.66	749.799
505.02	759.380
505.38	785.799
505.73	788.380
506.09	780.799
506.45	792.380
506.80	797.799
507.16	781.380
507.51	768.799
507.87	770.380
508.23	773.799
508.58	771.380
508.94	785.799
509.29	768.380
509.65	757.799
510.00	785.380
510.36	767.799
510.72	789.380
511.07	781.799
511.43	775.380
511.78	776.799
512.14	784.380
512.49	771.799
512.85	766.380
513.20	769.799
513.56	762.380
513.92	755.799
514.27	744.380
514.63	724.799
514.98	736.380
515.34	737.799
515.69	734.380
516.05	732.799
516.40	717.380
516.76	716.799
517.11	698.380
517.47	680.799
517.82	680.380
518.18	676.799
518.53	686.380
518.89	706.799
519.24	709.380
519.59	737.799
519.95	722.380
520.30	762.799
520.66	739.380
521.01	733.799
521.37	745.380
521.72	745.799
522.08	777.380
522.43	748.799
522.79	750.380
523.14	747.799
523.49	742.380
523.85	750.799
524.20	763.380
524.56	777.799
524.91	756.380
525.26	781.799
525.62	769.380
525.97	753.799
526.33	731.380
526.68	722.799
527.03	725.380
527.39	705.799
527.74	716.380
528.10	719.799
528.45	740.380
528.80	774.799
529.16	769.380
529.51	773.799
529.86	774.380
530.22	756.799
530.57	776.380
530.92	757.799
531.28	777.380
531.63	770.799
531.98	766.380
532.34	731.799
532.69	733.380
533.04	724.799
533.40	741.380
533.75	728.799
534.10	747.380
534.46	740.799
534.81	743.380
535.16	775.799
535.51	737.380
535.87	744.799
536.22	732.380
536.57	724.799
536.93	741.380
537.28	740.799
537.63	725.380
537.98	732.799
538.34	727.380
538.69	723.799
539.04	709.380
539.39	727.799
539.75	704.380
540.10	705.799
540.45	690.380
540.80	681.799
541.15	699.380
541.51	702.799
541.86	692.380
542.21	695.799
542.56	698.380
542.92	698.799
543.27	695.380
543.62	677.799
543.97	697.380
544.32	702.799
544.67	706.380
545.03	701.799
545.38	694.380
545.73	695.799
546.08	694.380
546.43	680.799
546.78	684.380
547.14	674.799
547.49	675.380
547.84	684.799
548.19	682.380
548.54	672.799
548.89	674.380
549.24	666.799
549.60	685.380
549.95	667.799
550.30	674.380
550.65	673.799
551.00	652.380
551.35	670.799
551.70	665.380
552.05	657.799
552.40	659.380
552.76	653.799
553.11	644.380
553.46	654.799
553.81	652.380
554.16	666.799
554.51	650.380
554.86	649.799
555.21	653.380
555.56	639.799
555.91	641.380
556.26	636.799
556.61	642.380
556.96	623.799
557.31	620.380
557.66	618.799
558.01	606.380
558.36	619.799
558.71	604.380
559.06	614.799
559.41	609.380
559.76	604.799
560.11	606.380
560.46	610.799
560.81	606.380
561.16	614.799
561.51	613.380
561.86	622.799
562.21	613.380
562.56	597.799
562.91	609.380
563.26	607.799
563.61	598.380
563.96	609.799
564.31	589.380
564.66	601.799
565.01	578.380
565.36	590.799
565.71	600.380
566.06	586.799
566.41	578.380
566.76	586.799
567.11	584.380
567.45	586.799
567.80	596.380
568.15	591.799
568.50	575.380
568.85	566.799
569.20	588.380
569.55	569.799
569.90	559.380
570.25	566.799
570.59	558.380
570.94	554.799
571.29	563.380
571.64	563.799
571.99	573.380
572.34	576.799
572.69	574.380
573.04	549.799
573.38	574.380
573.73	561.799
574.08	566.380
574.43	563.799
574.78	558.380
575.13	554.799
575.47	540.380
575.82	552.799
576.17	558.380
576.52	561.799
576.87	556.380
577.21	538.799
577.56	538.380
577.91	538.799
578.26	524.380
578.60	543.799
578.95	539.380
579.30	542.799
579.65	546.380
580.00	555.799
580.34	558.380
580.69	551.799
581.04	561.380
581.39	560.799
581.73	547.380
582.08	555.799
582.43	554.380
582.78	554.799
583.12	565.380
583.47	549.799
583.82	563.380
584.16	548.799
584.51	536.380
584.86	550.799
585.21	556.380
585.55	539.799
585.90	519.380
586.25	531.799
586.59	543.380
586.94	526.799
587.29	537.380
587.63	522.799
587.98	497.380
588.33	496.799
588.67	475.380
589.02	459.799
589.37	476.380
589.71	461.799
590.06	464.380
590.40	476.799
590.75	469.380
591.10	474.799
591.44	472.380
591.79	486.799
592.14	483.380
592.48	486.799
592.83	481.380
593.17	488.799
593.52	488.380
593.87	467.799
594.21	475.380
594.56	464.799
594.90	476.380
595.25	473.799
595.60	465.380
595.94	479.799
596.29	460.380
596.63	465.799
596.98	468.380
597.32	478.799
597.67	468.380
598.01	469.799
598.36	461.380
598.70	468.799
599.05	458.380
599.40	449.799
599.74	457.380
600.09	459.799
600.43	453.380
600.78	457.799
601.12	448.380
601.47	443.799
601.81	440.380
602.16	450.799
602.50	447.380
602.85	448.799
603.19	447.380
603.53	439.799
603.88	453.380
604.22	443.799
604.57	450.380
604.91	448.799
605.26	452.380
605.60	447.799
605.95	436.380
606.29	436.799
606.64	444.380
606.98	431.799
607.32	443.380
607.67	425.799
608.01	422.380
608.36	422.799
608.70	420.380
609.04	418.799
609.39	409.380
609.73	417.799
610.08	412.380
610.42	415.799
610.76	427.380
611.11	410.799
611.45	413.380
611.80	400.799
612.14	415.380
612.48	409.799
612.83	422.380
613.17	398.799
613.51	394.380
613.86	393.799
614.20	405.380
614.54	387.799
614.89	388.380
615.23	383.799
615.57	382.380
615.92	387.799
616.26	380.380
616.60	384.799
616.95	382.380
617.29	400.799
617.63	370.380
617.97	377.799
618.32	381.380
618.66	386.799
619.00	392.380
619.35	393.799
619.69	379.380
620.03	380.799
620.37	385.380
620.72	378.799
621.06	378.380
621.40	387.799
621.74	366.380
622.09	370.799
622.43	373.380
622.77	358.799
623.11	368.380
623.45	377.799
623.80	356.380
624.14	352.799
624.48	360.380
624.82	350.799
625.17	353.380
625.51	359.799
625.85	355.380
626.19	358.799
626.53	346.380
626.87	337.799
627.22	357.380
627.56	346.799
627.90	343.380
628.24	334.799
628.58	332.380
628.92	326.799
629.27	336.380
629.61	339.799
629.95	332.380
630.29	330.799
630.63	332.380
630.97	326.799
631.31	338.380
631.65	334.799
632.00	342.380
632.34	325.799
632.68	329.380
633.02	327.799
633.36	328.380
633.70	321.799
634.04	321.380
634.38	342.799
634.72	318.380
635.06	326.799
635.40	332.380
635.74	322.799
636.09	329.380
636.43	326.799
636.77	314.380
637.11	338.799
637.45	328.380
637.79	324.799
638.13	334.380
638.47	321.799
638.81	338.380
639.15	318.799
639.49	318.380
639.83	318.799
640.17	314.380
640.51	313.799
640.85	308.380
641.19	304.799
641.53	324.380
641.87	310.799
642.21	316.380
642.55	303.799
642.89	312.380
643.23	313.799
643.57	303.380
643.91	301.799
644.25	309.380
644.59	317.799
644.92	305.380
645.26	298.799
645.60	290.380
645.94	286.799
646.28	295.380
646.62	293.799
646.96	279.380
647.30	279.799
647.64	274.380
647.98	280.799
648.32	280.380
648.66	273.799
648.99	269.380
649.33	280.799
649.67	274.380
650.01	270.799
650.35	273.380
650.69	273.799
651.03	272.380
651.36	261.799
651.70	273.380
652.04	259.799
652.38	262.380
652.72	269.799
653.06	280.380
653.40	270.799
653.73	270.380
654.07	268.799
654.41	264.380
654.75	256.799
655.09	242.380
655.42	234.799
655.76	230.380
656.10	228.799
656.44	221.380
656.78	231.799
657.11	239.380
657.45	243.799
657.79	244.380
658.13	244.799
658.46	245.380
658.80	259.799
659.14	237.380
659.48	254.799
659.81	244.380
660.15	249.799
660.49	251.380
660.83	256.799
661.16	249.380
661.50	251.799
661.84	254.380
662.17	261.799
662.51	243.380
662.85	238.799
663.19	251.380
663.52	232.799
663.86	244.380
664.20	246.799
664.53	236.380
664.87	247.799
665.21	242.380
665.54	238.799
665.88	241.380
666.22	242.799
666.55	233.380
666.89	234.799
667.23	234.380
667.56	236.799
667.90	228.380
668.24	215.799
668.57	218.380
668.91	236.799
669.24	225.380
669.58	213.799
669.92	216.380
670.25	227.799
670.59	219.380
670.92	222.799
671.26	220.380
671.60	219.799
671.93	222.380
672.27	224.799
672.60	224.380
672.94	218.799
673.27	205.380
673.61	206.799
673.94	215.380
674.28	211.799
674.62	204.380
674.95	206.799
675.29	210.380
675.62	206.799
675.96	212.380
676.29	200.799
676.63	215.380
676.96	209.799
677.30	197.380
677.63	200.799
677.97	183.380
678.30	195.799
678.64	203.380
678.97	202.799
679.31	202.380
679.64	186.799
679.98	189.380
680.31	194.799
680.65	189.380
680.98	192.799
681.31	192.380
681.65	201.799
681.98	210.380
682.32	185.799
682.65	183.380
682.99	181.799
683.32	189.380
683.65	182.799
683.99	188.380
684.32	184.799
684.66	179.380
684.99	182.799
685.32	182.380
685.66	180.799
685.99	157.380
686.33	154.799
686.66	140.380
686.99	149.799
687.33	133.380
687.66	132.799
687.99	135.380
688.33	141.799
688.66	132.380
688.99	141.799
689.33	137.380
689.66	129.799
689.99	133.380
690.33	145.799
690.66	141.380
690.99	160.799
691.33	148.380
691.66	157.799
691.99	156.380
692.33	152.799
692.66	148.380
692.99	151.799
693.33	139.380
693.66	139.799
693.99	144.380
694.32	151.799
694.66	152.380
694.99	140.799
695.32	148.380
695.65	153.799
695.99	154.380
696.32	141.799
696.65	152.380
696.98	153.799
697.32	158.380
697.65	153.799
697.98	157.380
698.31	145.799
698.64	155.380
698.98	147.799
699.31	142.380
699.64	137.799
699.97	139.380
700.30	147.799
700.64	142.380
700.97	148.799
701.30	139.380
701.63	149.799
701.96	141.380
702.29	137.799
702.62	144.380
702.96	134.799
703.29	147.380
703.62	145.799
703.95	140.380
704.28	138.799
704.61	139.380
704.94	147.799
705.28	147.380
705.61	138.799
705.94	142.380
706.27	133.799
706.60	135.380
706.93	129.799
707.26	137.380
707.59	138.799
707.92	134.380
708.25	137.799
708.58	134.380
708.91	133.799
709.25	129.380
709.58	130.799
709.91	134.380
710.24	135.799
710.57	133.380
710.90	142.799
711.23	130.380
711.56	135.799
711.89	140.380
712.22	131.799
712.55	133.380
712.88	133.799
713.21	138.380
713.54	122.799
713.87	118.380
714.20	123.799
714.53	121.380
714.86	126.799
715.19	117.380
715.52	122.799
715.85	118.380
716.18	112.799
716.51	109.380
716.83	96.799
717.16	100.380
717.49	94.799
717.82	90.380
718.15	89.799
718.48	84.380
718.81	83.799
719.14	75.380
719.47	86.799
719.80	82.380
720.13	78.799
720.46	84.380
720.78	84.799
721.11	91.380
721.44	99.799
721.77	101.380
722.10	94.799
722.43	99.380
722.76	97.799
723.09	92.380
723.41	83.799
723.74	83.380
724.07	87.799
724.40	78.380
724.73	75.799
725.06	84.380
725.38	75.799
725.71	82.380
726.04	81.799
726.37	80.380
726.70	87.799
727.02	77.380
727.35	83.799
727.68	89.380
728.01	80.799
728.34	80.380
728.66	86.799
728.99	77.380
729.32	78.799
729.65	81.380
729.97	85.799
730.30	85.380
730.63	79.799
730.96	83.380
731.28	80.799
731.61	86.380
731.94	89.799
732.27	94.380
732.59	90.799
732.92	95.380
733.25	89.799
733.57	90.380
733.90	86.799
734.23	88.380
734.55	95.799
734.88	80.380
735.21	90.799
735.53	97.380
735.86	97.799
736.19	93.380
736.51	87.799
736.84	97.380
737.17	84.799
737.49	79.380
737.82	91.799
738.15	93.380
738.47	89.799
738.80	78.380
739.12	85.799
739.45	90.380
739.78	85.799
740.10	90.380
740.43	91.799
740.76	80.380
741.08	84.799
741.41	89.380
741.73	84.799
742.06	83.380
742.38	81.799
742.71	83.380
743.04	89.799
743.36	86.380
743.69	81.799
744.01	82.380
744.34	85.799
744.66	95.380
744.99	85.799
745.31	78.380
745.64	77.799
745.96	80.380
746.29	93.799
746.61	87.380
746.94	80.799
747.26	87.380
747.59	91.799
747.91	79.380
748.24	79.799
748.56	74.380
748.89	79.799
749.21	90.380
749.54	75.799
749.86	71.380
750.19	66.799
750.51	72.380
750.83	77.799
751.16	72.380
751.48	77.799
751.81	69.380
752.13	71.799
752.46	70.380
752.78	71.799
753.10	68.380
753.43	76.799
753.75	60.380
754.08	70.799
754.40	74.380
754.72	75.799
755.05	74.380
755.37	63.799
755.70	72.380
756.02	71.799
756.34	74.380
756.67	63.799
756.99	72.380
757.31	70.799
757.64	64.380
757.96	69.799
758.28	62.380
758.61	57.799
758.93	49.380
759.25	43.799
759.58	31.380
759.90	24.799
760.22	22.380
760.54	17.799
760.87	11.380
761.19	18.799
761.51	20.380
761.84	22.799
762.16	13.380
762.48	29.799
762.80	27.380
763.13	28.799
763.45	27.380
763.77	31.799
764.09	24.380
764.42	34.799
764.74	33.380
765.06	28.799
765.38	31.380
765.70	43.799
766.03	36.380
766.35	49.799
766.67	49.380
766.99	47.799
767.31	51.380
767.64	52.799
767.96	50.380
768.28	52.799
768.60	58.380
768.92	48.799
769.24	47.380
769.57	47.799
769.89	46.380
770.21	47.799
770.53	58.380
770.85	56.799
771.17	59.380
771.49	56.799
771.82	50.380
772.14	55.799
772.46	59.380
772.78	49.799
773.10	55.380
773.42	54.799
773.74	52.380
774.06	49.799
774.38	50.380
774.70	51.799
775.02	52.380
775.35	55.799
775.67	58.380
775.99	49.799
776.31	53.380
776.63	53.799
776.95	50.380
777.27	53.799
777.59	48.380
777.91	56.799
778.23	57.380
778.55	55.799
778.87	43.380
779.19	48.799
779.51	50.380
779.83	39.799
780.15	40.380
780.47	48.799
780.79	46.380
781.11	42.799
781.43	41.380
781.75	47.799
782.07	49.380
782.39	51.799
782.71	46.380
783.03	42.799
783.34	47.380
783.66	40.799
783.98	38.380
784.30	48.799
784.62	39.380
784.94	52.799
785.26	35.380
785.58	52.799
785.90	51.380
786.22	39.799
786.54	41.380
786.85	40.799
787.17	48.380
787.49	46.799
787.81	38.380
788.13	39.799
788.45	44.380
788.77	37.799
789.08	41.380
789.40	41.799
789.72	40.380
790.04	35.799
790.36	36.380
790.68	49.799
790.99	39.380
791.31	44.799
791.63	42.380
791.95	35.799
792.27	44.380
792.58	43.799
792.90	38.380
793.22	43.799
793.54	36.380
793.86	33.799
794.17	40.380
794.49	44.799
794.81	36.380
795.13	33.799
795.44	33.380
795.76	49.799
796.08	29.380
796.40	41.799
796.71	39.380
797.03	27.799
797.35	42.380
797.66	40.799
797.98	28.380
798.30	34.799
798.61	31.380
798.93	40.799
799.25	38.380
799.57	37.799
799.88	30.380
800.20	31.799
